sample3;;
Wavelength (nm);Abs;
899,980957;0,002047948772;
899,0529175;0,002226038137;
897,9917603;0,001860781224;
897,0628662;0,001981112408;
896,0006714;0,002003268804;
894,9379883;0,001826154417;
894,0076294;0,002539445879;
892,9439087;0,001803357387;
892,0126953;0,002503072843;
890,947876;0,003010073211;
890,0157471;0,002210401231;
888,9499512;0,002323412336;
888,0169067;0,002202595817;
886,9500732;0,002398161916;
886,0161743;0,002680984326;
884,9483032;0,002522105118;
884,0134888;0,002129414352;
882,9445801;0,002336138627;
882,0088501;0,002621967578;
880,9389648;0,002327472204;
880,0023193;0,002752539236;
879,0653076;0,002355293836;
877,9938965;0,002466754522;
877,0560303;0,002690803958;
875,9835815;0,002184253652;
875,0447998;0,002833564067;
873,9713745;0,0029944079;
873,0316772;0,002285625786;
871,9572144;0,001653113868;
871,0166626;0,002224268857;
869,9412231;0,001700720401;
868,9997559;0,001657479326;
868,0579224;0,002168565989;
866,9810181;0,001917276531;
866,038269;0,002213731408;
864,9603271;0,002237044508;
864,0167236;0,001801797771;
862,9378052;0,00196202565;
861,9933472;0,001274370356;
861,0484009;0,001953132683;
859,9680176;0,00184294756;
859,0222778;0,001565788058;
857,940918;0,002677676501;
856,9942627;0,002381243277;
856,0472412;0,001765980036;
854,9644165;0,001475960365;
854,0164795;0,003267655615;
852,9326782;0,002728182822;
851,9838867;0,002308266005;
851,034729;0,002172000241;
849,9494629;0,002818634501;
848,9994507;0,002660069615;
848,0490112;0,001950168516;
846,9623413;0,001187639777;
846,0110474;0,001887559076;
845,0593262;0,001456246478;
843,9711914;0,002647359855;
843,0186768;0,001922086696;
842,0657349;0,002342619002;
840,9761353;0,002560979687;
840,0223389;0,00224284688;
838,9318237;0,002891749842;
837,9771729;0,001864368794;
837,0221558;0,002368073212;
836,0667114;0,002291923389;
834,9743042;0,002206290374;
834,0180054;0,001974949613;
833,0613403;0,002012838842;
831,9675293;0,002313757082;
831,0100098;0,002574285958;
830,052063;0,002105092863;
828,9568481;0,002184253652;
827,9981079;0,002321174135;
827,0390015;0,00202313764;
825,9423218;0,002001110232;
824,9823608;0,00184245361;
824,0219727;0,00235438277;
823,0612183;0,00197146507;
821,9627686;0,002458319766;
821,0011597;0,00196337793;
820,0391846;0,002375543118;
818,9393311;0,002006337512;
817,9765015;0,001927104895;
817,0133667;0,00230837008;
816,0497437;0,001930589089;
814,9480591;0,001853164053;
813,9836426;0,002322267042;
813,0188599;0,0022476085;
812,0537109;0,001904588542;
810,9501953;0,002253463026;
809,9841919;0,001409290009;
809,0178223;0,002192839282;
808,0510864;0,001579713309;
806,9457397;0,002476386959;
805,9782104;0,002035699086;
805,0102539;0,002142005134;
804,0418701;0,002151760273;
802,9347534;0,001866292558;
801,9656372;0,001725591253;
800,9960938;0,002498438349;
800,0261841;0,002160891658;
799,0559082;0,002350739203;
797,9465942;0,002425233368;
796,9754639;0,001892888802;
796,0040283;0,002749491483;
795,0321655;0,002096456941;
794,0599976;0,00249073212;
792,9484253;0,002654105425;
791,9754028;0,002314798068;
791,0020142;0,002134070965;
790,0282593;0,002280239249;
789,0540771;0,002109280787;
787,9403687;0,002552126534;
786,9653931;0,002590795513;
785,9901123;0,001945358003;
785,0144043;0,002026882488;
784,0383911;0,001755739562;
783,0619507;0,002775881207;
781,9456177;0,002540096873;
780,9683838;0,002077729208;
779,9907837;0,00256019854;
779,0128784;0,002479120623;
778,0345459;0,002188962884;
777,0558472;0,001758130733;
775,9368896;0,00205289037;
774,9574585;0,00192486879;
773,9776001;0,002117188415;
772,9974365;0,002150485758;
772,0168457;0,002121194266;
771,0358887;0,001970944926;
770,0546265;0,002031355863;
768,9326782;0,002008365933;
767,9506226;0,002353680087;
766,9682007;0,002298507141;
765,9854126;0,002624597866;
765,0022583;0,00209708116;
764,0187378;0,002038975945;
763,0348511;0,002121740719;
762,0505981;0,002164559672;
761,065979;0,002262284281;
759,9403076;0,002156260889;
758,9549561;0,002495886991;
757,9691772;0,002184513956;
756,9830933;0,002590795513;
755,9966431;0,002797374735;
755,0098877;0,002563349204;
754,0227051;0,00259157666;
753,0352173;0,0020795241;
752,0473633;0,002238449408;
751,059082;0,002590925666;
750,0705566;0,002214459935;
748,9403076;0,002374554053;
747,9509277;0,001752412762;
746,9612427;0,002244356088;
745,9712524;0,002350556897;
744,980835;0,003105068114;
743,9901123;0,002457486698;
742,9989624;0,002283075592;
742,0075684;0,002452462446;
741,0157471;0,002597383922;
740,0236206;0,002589545446;
739,0310669;0,002246359596;
738,038269;0,002520126291;
737,0450439;0,002722712466;
736,0515137;0,00232070568;
735,0576172;0,002447906882;
734,0633545;0,002564755501;
733,0687866;0,002622045577;
731,9317017;0,001927520963;
730,9364014;0,002550902776;
729,9406738;0,002500078641;
728,9447021;0,002497475129;
727,9483032;0,002223176183;
726,9515991;0,002692913637;
725,9545898;0,002378197853;
724,9572144;0,002363518346;
723,9594727;0,00246209465;
722,9613647;0,002705546562;
721,9629517;0,002491018502;
720,9642334;0,002188936807;
719,9650879;0,00253876904;
718,9656982;0,002601055661;
717,9658813;0,002627332462;
716,9657593;0,002480838913;
715,965332;0,002647177549;
714,9645386;0,002700962359;
713,9634399;0,002676452277;
712,9619751;0,002906369045;
711,960144;0,002525281627;
710,9580078;0,002236420056;
709,9555054;0,002347824164;
708,9526978;0,002598503605;
707,949585;0,002501198091;
706,946106;0,002779789036;
705,9422607;0,002475840272;
704,9381714;0,002891775686;
703,9336548;0,00276202173;
702,928833;0,002292964142;
702,0673218;0,002674889518;
701,0618896;0,002345013432;
700,0561523;0,002682729391;
699,0500488;0,002726176986;
698,0436401;0,002196533605;
697,0368652;0,002151760273;
696,0297852;0,001939273556;
695,0223999;0,002637489233;
694,0146484;0,002265302697;
693,0065918;0,002309593372;
691,99823;0,002273421502;
690,989502;0,002382752951;
689,9804688;0,002449546941;
688,9710693;0,002515517874;
687,9613647;0,002748449333;
686,951355;0,002722373931;
685,94104;0,002410500078;
684,9303589;0,002374970354;
684,0638428;0,002289216965;
683,0525513;0,002685125684;
682,0409546;0,002468680963;
681,0290527;0,002681062557;
680,0168457;0,002660251921;
679,0042725;0,00247078971;
677,991394;0,002453113208;
676,9782104;0,001932409126;
675,9647217;0,002909626579;
674,9508667;0,002819338115;
673,9367065;0,002961619291;
673,0671997;0,002709167311;
672,0524292;0,002666945569;
671,0373535;0,002849275712;
670,0219727;0,002595274476;
669,0062866;0,00260629016;
667,9902954;0,002495600609;
666,973999;0,002857197076;
665,9573364;0,002677311888;
664,9403687;0,002743135206;
664,0684814;0,00287723518;
663,0509033;0,002789480612;
662,0330811;0,002854773775;
661,0148926;0,00244236202;
659,99646;0,00268002064;
658,9776611;0,002569442615;
657,9585571;0,002622670727;
656,9391479;0,002825044096;
656,0651245;0,002565849107;
655,045166;0,002848285716;
654,0248413;0,00252202712;
653,0042725;0,00243429211;
651,9833374;0,002685620682;
650,9620972;0,002493309556;
649,9406128;0,002508670324;
649,0647583;0,002595352707;
648,0426636;0,002517965389;
647,0202637;0,002367734676;
645,9975586;0,002871424193;
644,9745483;0,002537362976;
643,9512329;0,002531087957;
642,9276123;0,002359588165;
642,0499878;0,002765851328;
641,0258179;0,002650459297;
640,0013428;0,002487477614;
638,9765625;0,002179076429;
637,9514771;0,002667935332;
637,0725708;0,002744020894;
636,046936;0,002813970903;
635,0209961;0,002642255276;
633,9946899;0,002674603136;
632,9682007;0,00230241078;
631,9413452;0,002175928559;
631,0609131;0,002688433742;
630,0335083;0,002896935446;
629,0058594;0,002666294575;
627,9778442;0,002667075954;
626,9495239;0,002512810053;
626,0679321;0,002440539654;
625,0390625;0,002647438087;
624,0099487;0,002636160934;
622,9805298;0,002974129748;
621,9508057;0,002614050638;
621,0679321;0,00257243705;
620,0376587;0,002458033385;
619,0071411;0,002726020757;
617,9762573;0,002628269838;
616,9451294;0,002260150388;
616,0610352;0,002772676758;
615,0293579;0,002671659924;
613,9973755;0,002834892832;
612,9650879;0,002881795401;
611,9325562;0,002626238624;
611,0473022;0,003004078055;
610,0141602;0,002712058602;
608,980835;0,002837654902;
607,9471436;0,002838123823;
607,0609131;0,002750872169;
606,0267334;0,002701353049;
604,9922485;0,0028542527;
603,9574585;0,002744541969;
603,0702515;0,002892818069;
602,0349731;0,002701691585;
600,9993896;0,002989768283;
599,963501;0,002912128344;
598,9273682;0,002723493846;
598,0390015;0,003002618439;
597,0023193;0,003019743832;
595,9653931;0,00289935898;
594,9281616;0,002842136426;
594,0388184;0,002998943208;
593,0010986;0,002945929533;
591,9630127;0,003091797931;
591,0730591;0,003007023595;
590,0344849;0,002820197958;
588,9956665;0,002856884385;
587,956543;0,003066692268;
587,0656738;0,002704661107;
586,026001;0,002987109823;
584,986145;0,002869365737;
583,9459229;0,002709193388;
583,0541382;0,002770853229;
582,0134277;0,002896831138;
580,9724731;0,002962557599;
579,9312134;0,003035957692;
579,0385132;0,002960342215;
577,9967651;0,00296636275;
576,9547119;0,002951037837;
576,0613403;0,002873222344;
575,0187988;0,002835023217;
573,9760132;0,002988621593;
572,9329224;0,002844273113;
572,0386353;0,002963156905;
570,9950562;0,002913483419;
569,9512329;0,00288025802;
569,0562744;0,002947623609;
568,0119629;0,002921275562;
566,9673462;0,002998343669;
566,0717163;0,002837211825;
565,0266113;0,002972565824;
563,9812622;0,003129967488;
562,9356079;0,002968291519;
562,0391235;0,002993104747;
560,992981;0,002987005515;
559,9465942;0,003064398188;
559,0494385;0,003065049881;
558,0025635;0,003128168406;
556,9553833;0,003233724972;
556,0576172;0,002994981362;
555,0100098;0,003222328611;
553,9620972;0,003139171284;
553,0636597;0,003176249797;
552,0152588;0,003054127097;
550,9666138;0,003069690429;
550,0675659;0,003017449984;
549,0184326;0,002972930903;
547,9690552;0,003023158526;
547,0693359;0,003102565417;
546,0194702;0,003049591091;
544,9693604;0,002994147362;
544,0690308;0,003103425726;
543,0184326;0,003110126127;
541,9675903;0,002970246365;
541,0666504;0,002982783131;
540,0152588;0,002940143924;
538,9636841;0,003120581154;
538,0621338;0,003227257403;
537,0100708;0,003007779596;
535,9577026;0,003069638275;
535,055542;0,00316704507;
534,0027466;0,003083741991;
532,949707;0,003037704155;
532,046875;0,003294677008;
530,9934082;0,003135520965;
529,9396362;0,003272167873;
529,0361938;0,003132209647;
527,9819946;0,003126916941;
526,9274902;0,003193851328;
526,0234985;0,003157162573;
524,9685669;0,003180630505;
524,0641479;0,003265569219;
523,008728;0,003201022744;
521,953064;0,003185532987;
521,0480347;0,003143838607;
519,9919434;0,003286695573;
518,9356079;0,003170773853;
518,0299683;0,003410840407;
516,9731445;0,003206055611;
516,0671387;0,003366437508;
515,0098877;0,00315692788;
513,9523926;0,003199718893;
513,0457764;0,003228326561;
511,987854;0,003167410148;
510,929657;0,003173251171;
510,0224609;0,003249034053;
508,9638062;0,003155937186;
508,0562134;0,003246790962;
506,9971313;0,003063277341;
505,9378052;0,003169183154;
505,0296326;0,003170434851;
503,9698792;0,003234403208;
503,0613098;0,003280227073;
502,0011292;0,003266325686;
500,9406738;0,003071045969;
500,0315247;0,003230830189;
498,9706421;0,003141909139;
498,0611267;0,003190044314;
496,9998169;0,003149548778;
495,9382629;0,00327245472;
495,0281982;0,003078110982;
493,9661865;0,003284817562;
493,0557251;0,003275010735;
491,9933167;0,003293607617;
490,9306641;0,003331429558;
490,0196533;0,003246790962;
488,956543;0,003228378715;
488,045166;0,003218938364;
486,9816589;0,003383133793;
486,0698853;0,003312439891;
485,0059509;0,003415406216;
483,9417725;0,003240088467;
483,0294495;0,003390725469;
481,9648743;0,003352507018;
481,0521851;0,003481576452;
479,9871826;0,003384985961;
479,0741272;0,003358741757;
478,0086975;0,003452978097;
476,9430542;0,00337828137;
476,0294495;0,003451856086;
474,9633789;0,003289721208;
474,049408;0,003440245055;
472,9829102;0,003390099388;
472,0686035;0,003489848459;
471,001709;0,003366176505;
469,9345703;0,003562032711;
469,0197144;0,003485621186;
467,952179;0,003509158967;
467,0369568;0,003493240802;
465,9690247;0,003547339235;
465,0534668;0,003556029871;
463,9851074;0,003790773684;
463,0691833;0,003470747499;
462,0004272;0,003649134422;
460,931427;0,003587480169;
460,0149841;0,003579519456;
458,9456177;0,003656104207;
458,0288086;0,003559840377;
456,9590454;0,003518031677;
456,0419006;0,003605124541;
454,9717102;0,003616165835;
454,0542297;0,003690511687;
452,9836426;0,00379764149;
452,0658264;0,003757219994;
450,9948425;0,003872619243;
449,923645;0,003659915645;
449,0053101;0,003776411759;
447,9337158;0,003791060997;
447,0150452;0,003702964867;
445,9430847;0,003842349863;
445,0240784;0,003943952732;
443,9516907;0,003812474199;
443,0323486;0,00392347388;
441,9595947;0,003797458718;
441,039917;0,003805397311;
439,9667664;0,003864444559;
439,0467529;0,003960305825;
437,9732056;0,00390236848;
437,052887;0,003868884407;
435,9789734;0,003928123042;
435,0582886;0,003907540347;
433,9840088;0,003882309189;
433,0630188;0,004235103261;
431,9883423;0,003869328415;
431,0670166;0,003931466956;
429,9919434;0,003835324664;
429,0703125;0,003776490223;
427,994873;0,003996356856;
427,0729065;0,0040300861;
425,9971008;0,003954140469;
425,0748291;0,003844517516;
423,9986267;0,00386663829;
423,0760498;0,003980447073;
421,9994812;0,003859638935;
421,0765686;0,003767168382;
419,9996338;0,003876589239;
419,076416;0,00366383139;
417,999115;0,003940269817;
417,0755615;0,003797719721;
415,9979248;0,00379072153;
415,0740356;0,003832608694;
413,9960327;0,003866821062;
413,0718384;0,003912973218;
411,9934692;0,003846528474;
411,0689697;0,003886383492;
409,9902344;0,003894245485;
409,0654602;0,00409731688;
407,9863281;0,004000667948;
407,0612488;0,003955238033;
405,981781;0,003899678122;
405,056366;0,004012685735;
403,9765625;0,004074295517;
403,0508423;0,004013129976;
401,9706726;0,003890902037;
401,0446777;0,003983712755;
399,9641418;0,003977051005;
399,0378418;0,003999962471;
397,9569702;0,004220282193;
397,0303345;0,004052634351;
395,9491272;0,003951084334;
395,0222168;0,004016369581;
393,9406433;0,00421949802;
393,0134277;0,004201279953;
391,9315186;0,004280823749;
391,0040283;0,004152797163;
390,0763855;0,004204050172;
388,993988;0,004206951708;
388,06604;0,004083493724;
386,9833069;0,004310757853;
386,0550842;0,004200783093;
384,9719849;0,004149791785;
384,043457;0,003943352029;
382,9600525;0,004149347544;
382,03125;0,004250395112;
380,9474792;0,003932798747;
380,0184021;0,004338863771;
378,9342957;0,004265478346;
378,0049133;0,004116497468;
377,0754089;0,004430828616;
375,9908447;0,004231286701;
375,0610352;0,004326392431;
373,9761353;0,004321999848;
373,0460815;0,004352956545;
371,9608154;0,004312169738;
371,0304871;0,004374345299;
369,9449158;0,00452563772;
369,0142822;0,00465654768;
367,9284058;0,004639226943;
366,9974976;0,004489463754;
366,0664673;0,004646448418;
364,9801025;0,004372880794;
364,0487976;0,004422826227;
362,9621277;0,004753133748;
362,0305481;0,00463475287;
360,9435425;0,004675151315;
360,0117188;0,004672770388;
358,924408;0,004688391928;
357,9922791;0,004618217703;
357,0600281;0,004802023526;
355,9722595;0,00466151908;
355,0397644;0,004700271878;
353,9516602;0,00484510744;
353,0188904;0,004867855459;
351,9305115;0,004644956905;
350,997467;0,004915292375;
350,0643005;0,004805556964;
348,9754639;0,004614031874;
348,0420227;0,005012118723;
346,9528809;0,004847987089;
346,0191956;0,004888510332;
344,9297485;0,00488392869;
343,9957886;0,005020184442;
343,0617371;0,004904270172;
341,9718323;0,004954067525;
341,0375061;0,005136810243;
339,9473267;0,005115174688;
339,0127258;0,005257083569;
337,9222412;0,005145559087;
336,9874268;0,005144328345;
336,0524597;0,00510213105;
334,9615479;0,005337528884;
334,0263367;0,005354720168;
332,9351196;0,005211862735;
331,9996643;0,005267642904;
331,0641174;0,005446533673;
329,9724731;0,005486693233;
329,0366516;0,005455838982;
327,9447021;0,005481817294;
327,008667;0,005495291669;
326,0724792;0,005775181111;
324,9801331;0,005547909532;
324,0437012;0,005888966378;
322,9510803;0,005608819891;
322,0144043;0,005661713891;
321,0776367;0,005848874338;
319,9845886;0,005909485742;
319,0475769;0,005933365319;
317,9542542;0,005940634757;
317,0169983;0,005881435703;
315,9234009;0,005895473529;
314,9859009;0,005941946525;
314,0482788;0,006189615931;
312,9542847;0,006120249163;
312,016449;0,006092605181;
310,9221497;0,006311179139;
309,9841003;0,00624759635;
309,0458984;0,006127311382;
307,9512329;0,006198700983;
307,0128174;0,006213064771;
306,0743103;0,006338232663;
304,9792175;0,006443206687;
304,0404663;0,00626534922;
302,9451294;0,006521060131;
302,0061646;0,006637879647;
301,0670776;0,006654833443;
299,9713745;0,006723628379;
299,0320435;0,006696682423;
297,9360657;0,00672436459;
296,996521;0,006832824089;
296,0569153;0,007018622011;
294,9605408;0,006631623954;
294,0206909;0,006752153859;
292,9240417;0,006906670984;
291,9839783;0,006948728114;
291,0437927;0,006998076104;
289,9468079;0,007016148884;
289,0064087;0,007170812227;
288,065918;0,007279014681;
286,9685364;0,007253350224;
286,027832;0,007059821859;
284,9302063;0,007055375259;
283,9892578;0,007412943058;
283,0482483;0,007399092894;
281,9502563;0,007567142136;
281,0090332;0,007435404696;
280,067688;0,007402726449;
278,9693298;0,007527869195;
278,0278015;0,007443857379;
276,9291992;0,007540933322;
275,9874573;0,007505508605;
275,0455933;0,00724821724;
273,9466553;0,00766458828;
273,0046082;0,00777391484;
272,0624695;0,007661057636;
270,9631653;0,007983634248;
270,020813;0,007943137549;
269,0783691;0,008073288947;
267,9787292;0,008030910976;
267,0360718;0,00803046301;
265,9361877;0,008490451612;
264,9933472;0,008578203619;
264,050415;0,008150063455;
262,9501953;0,008256056346;
262,0070496;0,008642630652;
261,0638428;0,008513919078;
259,9632874;0,00874972064;
259,0198669;0,008888594806;
258,076355;0,009006238542;
256,9754639;0,009228637442;
256,0317383;0,009316989221;
254,9306488;0,009618169628;
253,9867401;0,009502027184;
253,0427551;0,009748453274;
251,94133;0,009956796654;
250,9971466;0,01036005281;
250,052887;0,0101164598;
248,9573822;0,01060532127;
248,0185699;0,01081160922;
246,923172;0,01120219193;
245,9841614;0,01148602366;
245,0450745;0,0116989268;
243,9493561;0,01227397658;
243,0100861;0,01246898994;
242,0707245;0,01337913796;
240,9747162;0,01391811483;
240,0351715;0,01494741067;
238,9389496;0,01611936279;
237,9992218;0,0173854921;
237,059433;0,01887158118;
235,9629059;0,02120446414;
235,0229187;0,02331091836;
233,9261932;0,02659269609;
232,9860382;0,0319204703;
232,0458069;0,03717311844;
230,9487762;0,04413128644;
230,0083771;0,05066357926;
229,0678864;0,05865877867;
227,9705658;0,07147306204;
227,0299072;0,08843663335;
225,9323883;0,1104377583;
224,9915619;0,1264663041;
224,0506744;0,1562427431;
222,9528656;0,1987595558;
222,011795;0,2430114448;
221,0706482;0,2876049876;
219,9725647;0,3598108292;
219,03125;0,4471432269;
217,9329681;0,6019462347;
216,9915009;0,7478299141;
216,0499573;0,913556397;
214,9514008;1,19389987;
214,0096893;1,520658731;
213,0679169;1,929196358;
211,9690857;2,336294651;
211,0271454;2,504905701;
209,9281311;2,652046442;
208,9860382;2,683767319;
208,043869;2,754553556;
206,9445801;2,925736666;
206,0022583;2,848865986;
205,0598755;2,877729893;
203,9603271;3,01693058;
203,0177917;2,918977499;
202,0751648;2,869114399;
200,9753723;2,86141777;
200,032608;2,881052256;

sample3;
sample3
Collection Time: 2016-06-14 10:29:48
Operator Name  :
Scan Software Version: 3.00(339)
Parameter List :
Instrument                        Cary 50
Instrument Version                3,00
Start (nm)                        900,0
Stop (nm)                         200,0
X Mode                            Nanometers
Y Mode                            Abs
UV-Vis Scan Rate (nm/min)         600,00
UV-Vis Data Interval (nm)         1,00
UV-Vis Ave. Time (sec)            0,1000
Beam Mode                         Dual Beam
Baseline Correction               On
Baseline Type                     Baseline correction
Baseline File Name                C:\Documents and Settings\Asia\Pulpit\NMilaniak2016\woda1cm.CSW
Baseline Std Ref File Name
Cycle Mode                        Off
Comments
Method Log     :
Method Name    :
Date/Time stamp: 2016-06-14 10:07:39
Method Modifications:
UVVIS SAT Changed: 2016-06-14 10:12:04, Old:0,0125, New:0,1000
Common SAT Changed: 2016-06-14 10:12:04, Old:0,0125, New:0,1000
X Stop nm Changed: 2016-06-14 10:12:20, Old:  200,0, New:  250,0
Common Interval nm Changed: 2016-06-14 10:12:20, Old:     5,00, New:     1,00
Baseline Correction Changed: 2016-06-14 10:12:20, Old:0, New:1
Baseline file Changed: 2016-06-14 10:18:54, Old:, New:C:\Documents and Settings\Asia\Pulpit\NMilaniak2016\woda1cm.CSW
X Start nm Changed: 2016-06-14 10:23:40, Old:  800,0, New:  900,0
X Stop nm Changed: 2016-06-14 10:23:40, Old:  250,0, New:  190,0
X Stop nm Changed: 2016-06-14 10:23:46, Old:  190,0, New:  200,0
Baseline file Changed: 2016-06-14 10:24:15, Old:C:\Documents and Settings\Asia\Pulpit\NMilaniak2016\woda1cm.CSW, New:
Baseline file Changed: 2016-06-14 10:25:37, Old:, New:C:\Documents and Settings\Asia\Pulpit\NMilaniak2016\woda1cm.CSW
End Method Modifications
<Current Wavelength> , 203,0

