2x roz 50mM NaOH2;;
Wavelength (nm);Abs;
899,980957;0,01049408596;
899,0529175;0,01047361363;
897,9917603;0,00923416391;
897,0628662;0,009040358476;
896,0006714;0,007476591039;
894,9379883;0,006695946213;
894,0076294;0,007134128362;
892,9439087;0,006864959374;
892,0126953;0,006322368048;
890,947876;0,007199130487;
890,0157471;0,006264403928;
888,9499512;0,006724522449;
888,0169067;0,00659879623;
886,9500732;0,007067951839;
886,0161743;0,007154496387;
884,9483032;0,0069454927;
884,0134888;0,006678780541;
882,9445801;0,006298388354;
882,0088501;0,006962090265;
880,9389648;0,0067035174;
880,0023193;0,007001390681;
879,0653076;0,00695746066;
877,9938965;0,006831193808;
877,0560303;0,007294467185;
875,9835815;0,00776695786;
875,0447998;0,008303679526;
873,9713745;0,008852320723;
873,0316772;0,008544225246;
871,9572144;0,00859916769;
871,0166626;0,009522083215;
869,9412231;0,008548026904;
868,9997559;0,00771952467;
868,0579224;0,007722476032;
866,9810181;0,006753652822;
866,038269;0,00705332309;
864,9603271;0,005938797724;
864,0167236;0,005795800127;
862,9378052;0,005532204639;
861,9933472;0,004629127681;
861,0484009;0,005375555251;
859,9680176;0,005363578442;
859,0222778;0,00492796395;
857,940918;0,005411357619;
856,9942627;0,005126411561;
856,0472412;0,005079763476;
854,9644165;0,004984597676;
854,0164795;0,005961603019;
852,9326782;0,006403063424;
851,9838867;0,004851363599;
851,034729;0,004991013091;
849,9494629;0,005720306188;
848,9994507;0,005480873398;
848,0490112;0,005816341843;
846,9623413;0,004895709455;
846,0110474;0,005801860243;
845,0593262;0,005829931702;
843,9711914;0,005033513531;
843,0186768;0,005470597185;
842,0657349;0,005477334373;
840,9761353;0,00583431311;
840,0223389;0,005373510998;
838,9318237;0,005146449897;
837,9771729;0,005257162265;
837,0221558;0,006032178178;
836,0667114;0,005580658093;
834,9743042;0,005675010383;
834,0180054;0,005973727442;
833,0613403;0,0060290806;
831,9675293;0,005960133392;
831,0100098;0,005213565659;
830,052063;0,005276708864;
828,9568481;0,005107552744;
827,9981079;0,005753880832;
827,0390015;0,005039065611;
825,9423218;0,004654402379;
824,9823608;0,004403239582;
824,0219727;0,0049848333;
823,0612183;0,0050570569;
821,9627686;0,005381032825;
821,0011597;0,004458680749;
820,0391846;0,004921470769;
818,9393311;0,004509525374;
817,9765015;0,004928984679;
817,0133667;0,00523436768;
816,0497437;0,004566732328;
814,9480591;0,004706578329;
813,9836426;0,004821052309;
813,0188599;0,004963571671;
812,0537109;0,005013768561;
810,9501953;0,004801185802;
809,9841919;0,004315254744;
809,0178223;0,005028616637;
808,0510864;0,00460712472;
806,9457397;0,005192554556;
805,9782104;0,005078873131;
805,0102539;0,005312555004;
804,0418701;0,005335510708;
802,9347534;0,004812571686;
801,9656372;0,005121461116;
800,9960938;0,005468054675;
800,0261841;0,005394452251;
799,0559082;0,005763743538;
797,9465942;0,004897384904;
796,9754639;0,005739951972;
796,0040283;0,006338784471;
795,0321655;0,0056593013;
794,0599976;0,005579242017;
792,9484253;0,005692477804;
791,9754028;0,005476862658;
791,0020142;0,005239581689;
790,0282593;0,005967822857;
789,0540771;0,005490284413;
787,9403687;0,005333807319;
786,9653931;0,005337817129;
785,9901123;0,005333807319;
785,0144043;0,006158186588;
784,0383911;0,00561020989;
783,0619507;0,006058584433;
781,9456177;0,006407503039;
780,9683838;0,006237249821;
779,9907837;0,00610221317;
779,0128784;0,005798581056;
778,0345459;0,005948979873;
777,0558472;0,006123058032;
775,9368896;0,005966851488;
774,9574585;0,006177616306;
773,9776001;0,005798817147;
772,9974365;0,005741394591;
772,0168457;0,005554359406;
771,0358887;0,005632971413;
770,0546265;0,005186267197;
768,9326782;0,005337397568;
767,9506226;0,005215923302;
766,9682007;0,005395762622;
765,9854126;0,005166620016;
765,0022583;0,004408861976;
764,0187378;0,004762843251;
763,0348511;0,004260589834;
762,0505981;0,004426252097;
761,065979;0,004327830393;
759,9403076;0,004247022793;
758,9549561;0,004558832385;
757,9691772;0,004566104617;
756,9830933;0,004667903297;
755,9966431;0,004295698833;
755,0098877;0,004570080899;
754,0227051;0,004617459141;
753,0352173;0,004261112772;
752,0473633;0,00470417086;
751,059082;0,004545648582;
750,0705566;0,004198901355;
748,9403076;0,004084564745;
747,9509277;0,004209905397;
746,9612427;0,004542300012;
745,9712524;0,004416288808;
744,980835;0,005038567819;
743,9901123;0,004163225181;
742,9989624;0,004404233303;
742,0075684;0,004782131873;
741,0157471;0,004673267715;
740,0236206;0,004495715257;
739,0310669;0,004537251778;
738,038269;0,004674680531;
737,0450439;0,004194118083;
736,0515137;0,00426163571;
735,0576172;0,004316823091;
734,0633545;0,00422375882;
733,0687866;0,004326026421;
731,9317017;0,0040416345;
730,9364014;0,004381875973;
729,9406738;0,004404390231;
728,9447021;0,004491059575;
727,9483032;0,004325503483;
726,9515991;0,004371024203;
725,9545898;0,004441733938;
724,9572144;0,004111349583;
723,9594727;0,004336745944;
722,9613647;0,004489463754;
721,9629517;0,004260223825;
720,9642334;0,00414788397;
719,9650879;0,004337164108;
718,9656982;0,004141768441;
717,9658813;0,004243833944;
716,9657593;0,004328379408;
715,965332;0,004482951481;
714,9645386;0,004678657744;
713,9634399;0,004497153684;
712,9619751;0,004679285921;
711,960144;0,004440478515;
710,9580078;0,004479995929;
709,9555054;0,004363650922;
708,9526978;0,00449697068;
707,949585;0,004436058924;
706,946106;0,004586614203;
705,9422607;0,004397957586;
704,9381714;0,004890552256;
703,9336548;0,004699669778;
702,928833;0,004247467499;
702,0673218;0,00520211691;
701,0618896;0,004273791332;
700,0561523;0,00465544872;
699,0500488;0,004863457754;
698,0436401;0,004673476797;
697,0368652;0,004449762404;
696,0297852;0,004386269022;
695,0223999;0,004351806361;
694,0146484;0,004453449976;
693,0065918;0,004541986156;
691,99823;0,004510127008;
690,989502;0,004667196888;
689,9804688;0,004346969072;
688,9710693;0,004183192737;
687,9613647;0,004946867004;
686,951355;0,004587058909;
685,94104;0,004577615298;
684,9303589;0,004379365593;
684,0638428;0,00423946837;
683,0525513;0,004068703856;
682,0409546;0,004331098404;
681,0290527;0,004590904806;
680,0168457;0,004562991671;
679,0042725;0,004097081721;
677,991394;0,00443987688;
676,9782104;0,003920495976;
675,9647217;0,004692499992;
674,9508667;0,004397931509;
673,9367065;0,004046807997;
673,0671997;0,004676930606;
672,0524292;0,004053000361;
671,0373535;0,004654349759;
670,0219727;0,004257583991;
669,0062866;0,004377927631;
667,9902954;0,00447806064;
666,973999;0,004517816938;
665,9573364;0,004171013366;
664,9403687;0,004455019254;
664,0684814;0,004478164949;
663,0509033;0,004477014299;
662,0330811;0,00454855198;
661,0148926;0,004264772404;
659,99646;0,004614057951;
658,9776611;0,004699853249;
657,9585571;0,004490091465;
656,9391479;0,004677061457;
656,0651245;0,004717097618;
655,045166;0,004883719608;
654,0248413;0,004825502168;
653,0042725;0,004609034862;
651,9833374;0,004914532881;
650,9620972;0,004682844505;
649,9406128;0,00495689502;
649,0647583;0,005006174557;
648,0426636;0,004812859464;
647,0202637;0,005196458194;
645,9975586;0,005219407845;
644,9745483;0,005081806332;
643,9512329;0,005217102356;
642,9276123;0,005263607483;
642,0499878;0,005352912005;
641,0258179;0,005248830188;
640,0013428;0,005862989929;
638,9765625;0,005229834933;
637,9514771;0,005631555337;
637,0725708;0,00598259829;
636,046936;0,005808759946;
635,0209961;0,006012308877;
633,9946899;0,005840478465;
632,9682007;0,005909695756;
631,9413452;0,005958558526;
631,0609131;0,006117256358;
630,0335083;0,006044462323;
629,0058594;0,005942629185;
627,9778442;0,005958295893;
626,9495239;0,005940529518;
626,0679321;0,006159158424;
625,0390625;0,006089061033;
624,0099487;0,005898517556;
622,9805298;0,006385698915;
621,9508057;0,006448040716;
621,0679321;0,005948297214;
620,0376587;0,006220548414;
619,0071411;0,00615062518;
617,9762573;0,006234991364;
616,9451294;0,005920192227;
616,0610352;0,006144639105;
615,0293579;0,006416067481;
613,9973755;0,005866873078;
612,9650879;0,00579252094;
611,9325562;0,00594876986;
611,0473022;0,005933234468;
610,0141602;0,00595924072;
608,980835;0,006220522337;
607,9471436;0,005967875011;
607,0609131;0,005723060109;
606,0267334;0,005661740433;
604,9922485;0,006037138868;
603,9574585;0,005925046746;
603,0702515;0,005887601525;
602,0349731;0,005824527238;
600,9993896;0,005933759268;
599,963501;0,005761881359;
598,9273682;0,005543845706;
598,0390015;0,005678603426;
597,0023193;0,006236960646;
595,9653931;0,006023988593;
594,9281616;0,005856824107;
594,0388184;0,006152437069;
593,0010986;0,006235385314;
591,9630127;0,005964463577;
591,0730591;0,005961760413;
590,0344849;0,005906441715;
588,9956665;0,00624972349;
587,956543;0,00599028822;
587,0656738;0,005888913758;
586,026001;0,006119015161;
584,986145;0,005609711632;
583,9459229;0,005463021342;
583,0541382;0,00572681101;
582,0134277;0,005666775629;
580,9724731;0,005606617313;
579,9312134;0,005726234056;
579,0385132;0,00564222876;
577,9967651;0,005773371086;
576,9547119;0,005796954501;
576,0613403;0,005774735007;
575,0187988;0,006029290613;
573,9760132;0,00601078663;
572,9329224;0,005899698008;
572,0386353;0,006197204348;
570,9950562;0,006127180066;
569,9512329;0,006064857822;
569,0562744;0,006299517583;
568,0119629;0,006192031782;
566,9673462;0,00640148716;
566,0717163;0,006536958274;
565,0266113;0,006406425964;
563,9812622;0,006513754837;
562,9356079;0,00640671514;
562,0391235;0,006497857627;
560,992981;0,006628259551;
559,9465942;0,006852573249;
559,0494385;0,006704121828;
558,0025635;0,006785151083;
556,9553833;0,00698715914;
556,0576172;0,006987843197;
555,0100098;0,007043299265;
553,9620972;0,00696164323;
553,0636597;0,007369313855;
552,0152588;0,007271618117;
550,9666138;0,007340642624;
550,0675659;0,00738429511;
549,0184326;0,007185497321;
547,9690552;0,007392352447;
547,0693359;0,007746323943;
546,0194702;0,007846920751;
544,9693604;0,007875018753;
544,0690308;0,007888884284;
543,0184326;0,007915087044;
541,9675903;0,008082439192;
541,0666504;0,008638669737;
540,0152588;0,00856619142;
538,9636841;0,008601148613;
538,0621338;0,008565926924;
537,0100708;0,008752019145;
535,9577026;0,008977142163;
535,055542;0,008932430297;
534,0027466;0,009163066745;
532,949707;0,009606048465;
532,046875;0,009617110714;
530,9934082;0,009556350298;
529,9396362;0,009497370571;
529,0361938;0,009992131032;
527,9819946;0,01039846893;
526,9274902;0,01034364291;
526,0234985;0,01058152784;
524,9685669;0,01086314954;
524,0641479;0,01090790145;
523,008728;0,0110466443;
521,953064;0,01117427554;
521,0480347;0,01123319101;
519,9919434;0,01134722028;
518,9356079;0,01181267854;
518,0299683;0,0123321088;
516,9731445;0,01232052501;
516,0671387;0,01262880582;
515,0098877;0,01279633213;
513,9523926;0,01301606651;
513,0457764;0,0132660158;
511,987854;0,0135066295;
510,929657;0,0140089225;
510,0224609;0,01419452671;
508,9638062;0,01468535233;
508,0562134;0,01486685313;
506,9971313;0,01502865274;
505,9378052;0,01528201532;
505,0296326;0,01560265757;
503,9698792;0,01591940038;
503,0613098;0,01642425172;
502,0011292;0,01684206352;
500,9406738;0,01704514399;
500,0315247;0,01739748195;
498,9706421;0,01795962825;
498,0611267;0,0181323532;
496,9998169;0,0186737515;
495,9382629;0,0194354225;
495,0281982;0,01953039691;
493,9661865;0,0198928602;
493,0557251;0,02015320025;
491,9933167;0,02121343464;
490,9306641;0,02197952196;
490,0196533;0,02199882828;
488,956543;0,02242528275;
488,045166;0,02307963558;
486,9816589;0,02418817952;
486,0698853;0,02422822267;
485,0059509;0,02477302961;
483,9417725;0,02615149133;
483,0294495;0,02656933293;
481,9648743;0,02709727548;
481,0521851;0,02748765051;
479,9871826;0,02837679721;
479,0741272;0,02874312922;
478,0086975;0,02967204712;
476,9430542;0,03037144989;
476,0294495;0,03104300983;
474,9633789;0,03164794669;
474,049408;0,03252108023;
472,9829102;0,03336133808;
472,0686035;0,03415679559;
471,001709;0,03497621045;
469,9345703;0,03561295196;
469,0197144;0,03643900901;
467,952179;0,03735557571;
467,0369568;0,03824301809;
465,9690247;0,03920941427;
465,0534668;0,03991028666;
463,9851074;0,0410840027;
463,0691833;0,04167221114;
462,0004272;0,04306289554;
460,931427;0,04395452514;
460,0149841;0,0450261794;
458,9456177;0,0460007824;
458,0288086;0,04683310166;
456,9590454;0,04785076156;
456,0419006;0,04906155542;
454,9717102;0,05010249466;
454,0542297;0,05087772757;
452,9836426;0,05235983431;
452,0658264;0,05356793851;
450,9948425;0,05476620048;
449,923645;0,05578356609;
449,0053101;0,05662996694;
447,9337158;0,0581124872;
447,0150452;0,05958482623;
445,9430847;0,06072405353;
445,0240784;0,06190958992;
443,9516907;0,06296497583;
443,0323486;0,06426922232;
441,9595947;0,06530728936;
441,039917;0,067031838;
439,9667664;0,06820533425;
439,0467529;0,06940827519;
437,9732056;0,07075977325;
437,052887;0,07209274918;
435,9789734;0,07360429317;
435,0582886;0,07481344789;
433,9840088;0,07654869556;
433,0630188;0,07769980282;
431,9883423;0,07897213101;
431,0670166;0,08067806065;
429,9919434;0,08201768249;
429,0703125;0,08367494494;
427,994873;0,08520787954;
427,0729065;0,08655527979;
425,9971008;0,0882711187;
425,0748291;0,08974730968;
423,9986267;0,09152869135;
423,0760498;0,09310729057;
421,9994812;0,09473901242;
421,0765686;0,0961593464;
419,9996338;0,09798583388;
419,076416;0,09940288216;
417,999115;0,1014978141;
417,0755615;0,1024313569;
415,9979248;0,104173176;
415,0740356;0,1057338119;
413,9960327;0,1077058017;
413,0718384;0,1092331335;
411,9934692;0,1107718647;
411,0689697;0,1121596694;
409,9902344;0,1140420213;
409,0654602;0,1158052087;
407,9863281;0,1177503839;
407,0612488;0,1192319915;
405,981781;0,1210489795;
405,056366;0,1224791259;
403,9765625;0,1248207837;
403,0508423;0,1264476776;
401,9706726;0,1286313385;
401,0446777;0,1299643219;
399,9641418;0,1315945387;
399,0378418;0,133517161;
397,9569702;0,1357012242;
397,0303345;0,1372862309;
395,9491272;0,1386839151;
395,0222168;0,1402997822;
393,9406433;0,1422907859;
393,0134277;0,14392896;
391,9315186;0,1464696527;
391,0040283;0,1469813883;
390,0763855;0,1486616433;
388,993988;0,150488466;
388,06604;0,1521276236;
386,9833069;0,1541659087;
386,0550842;0,1552024186;
384,9719849;0,1567544639;
384,043457;0,1587296873;
382,9600525;0,1606067121;
382,03125;0,1618679017;
380,9474792;0,163855359;
380,0184021;0,1649723053;
378,9342957;0,167113319;
378,0049133;0,1695042253;
377,0754089;0,1711266786;
375,9908447;0,1726103574;
375,0610352;0,1740247607;
373,9761353;0,1759211272;
373,0460815;0,1776628494;
371,9608154;0,179620266;
371,0304871;0,1815225184;
369,9449158;0,1828542799;
369,0142822;0,1841929108;
367,9284058;0,1860748231;
366,9974976;0,1876035333;
366,0664673;0,1888963878;
364,9801025;0,1900682151;
364,0487976;0,1916490346;
362,9621277;0,1934215277;
362,0305481;0,1954373121;
360,9435425;0,1966987699;
360,0117188;0,1979164928;
358,924408;0,198851496;
357,9922791;0,2007767856;
357,0600281;0,201996237;
355,9722595;0,2031929344;
355,0397644;0,2044170499;
353,9516602;0,2059652805;
353,0188904;0,2072692066;
351,9305115;0,2085456401;
350,997467;0,2101802081;
350,0643005;0,2115175128;
348,9754639;0,2129042596;
348,0420227;0,214418456;
346,9528809;0,2160249949;
346,0191956;0,2176444232;
344,9297485;0,2197285444;
343,9957886;0,2206963599;
343,0617371;0,2219338566;
341,9718323;0,2239688635;
341,0375061;0,2253233343;
339,9473267;0,2272875458;
339,0127258;0,2289888561;
337,9222412;0,2302406728;
336,9874268;0,2322274446;
336,0524597;0,2336657047;
334,9615479;0,2362455279;
334,0263367;0,2374392152;
332,9351196;0,2392344177;
331,9996643;0,2408861667;
331,0641174;0,2426159829;
329,9724731;0,2450086623;
329,0366516;0,2463762909;
327,9447021;0,2479789108;
327,008667;0,2498925626;
326,0724792;0,2513035536;
324,9801331;0,2529679239;
324,0437012;0,2552524507;
322,9510803;0,2565393448;
322,0144043;0,2578496337;
321,0776367;0,2590287924;
319,9845886;0,2621677816;
319,0475769;0,2635729909;
317,9542542;0,265629679;
317,0169983;0,2675638497;
315,9234009;0,2698468268;
314,9859009;0,2725607157;
314,0482788;0,2743291259;
312,9542847;0,2769815922;
312,016449;0,2795505524;
310,9221497;0,2826384008;
309,9841003;0,2854967117;
309,0458984;0,2878800631;
307,9512329;0,2915535867;
307,0128174;0,2949996293;
306,0743103;0,2986202836;
304,9792175;0,3023393452;
304,0404663;0,3050140738;
302,9451294;0,3100034297;
302,0061646;0,31469208;
301,0670776;0,3178597093;
299,9713745;0,3228462636;
299,0320435;0,326215595;
297,9360657;0,330994904;
296,996521;0,3358372748;
296,0569153;0,3395695686;
294,9605408;0,344902873;
294,0206909;0,3482973874;
292,9240417;0,3534338176;
291,9839783;0,3580554724;
291,0437927;0,3620477617;
289,9468079;0,3666288555;
289,0064087;0,3701898754;
288,065918;0,3743577302;
286,9685364;0,3792883754;
286,027832;0,3829576969;
284,9302063;0,3877171576;
283,9892578;0,3910629451;
283,0482483;0,3956028819;
281,9502563;0,4010048807;
281,0090332;0,4052868783;
280,067688;0,40931198;
278,9693298;0,4144132733;
278,0278015;0,4190018177;
276,9291992;0,4241804481;
275,9874573;0,4277515709;
275,0455933;0,4301849604;
273,9466553;0,4344358146;
273,0046082;0,4378372133;
272,0624695;0,4410823286;
270,9631653;0,443053782;
270,020813;0,4454818964;
269,0783691;0,4473364055;
267,9787292;0,4487175643;
267,0360718;0,450142473;
265,9361877;0,4505789578;
264,9933472;0,4504497945;
264,050415;0,4501395822;
262,9501953;0,4491913021;
262,0070496;0,4487799108;
261,0638428;0,4486768842;
259,9632874;0,4501342177;
259,0198669;0,450769186;
258,076355;0,4521824419;
256,9754639;0,4535444975;
256,0317383;0,4554988742;
254,9306488;0,4581924379;
253,9867401;0,4616328776;
253,0427551;0,4671711028;
251,94133;0,4726242125;
250,9971466;0,4787155688;
250,052887;0,4840748012;
248,9573822;0,4939987063;
248,0185699;0,5037224293;
246,923172;0,5138635635;
245,9841614;0,5244635344;
245,0450745;0,533716023;
243,9493561;0,5489962101;
243,0100861;0,5613206625;
242,0707245;0,573325634;
240,9747162;0,5881648064;
240,0351715;0,5982621312;
238,9389496;0,616178453;
237,9992218;0,6339669824;
237,059433;0,6490647793;
235,9629059;0,6695796251;
235,0229187;0,6836474538;
233,9261932;0,7061783671;
232,9860382;0,7334456444;
232,0458069;0,7590129972;
230,9487762;0,7918345928;
230,0083771;0,8187762499;

2x roz 50mM NaOH2;
2x roz 50mM NaOH2
Collection Time: 2016-06-14 11:04:48
Operator Name  :
Scan Software Version: 3.00(339)
Parameter List :
Instrument                        Cary 50
Instrument Version                3,00
Start (nm)                        900,0
Stop (nm)                         230,0
X Mode                            Nanometers
Y Mode                            Abs
UV-Vis Scan Rate (nm/min)         600,00
UV-Vis Data Interval (nm)         1,00
UV-Vis Ave. Time (sec)            0,1000
Beam Mode                         Dual Beam
Baseline Correction               On
Baseline Type                     Baseline correction
Baseline File Name                C:\Documents and Settings\Asia\Pulpit\NMilaniak2016\woda1cm.CSW
Baseline Std Ref File Name
Cycle Mode                        Off
Comments
Method Log     :
Method Name    :
Date/Time stamp: 2016-06-14 10:07:39
Method Modifications:
UVVIS SAT Changed: 2016-06-14 10:12:04, Old:0,0125, New:0,1000
Common SAT Changed: 2016-06-14 10:12:04, Old:0,0125, New:0,1000
X Stop nm Changed: 2016-06-14 10:12:20, Old:  200,0, New:  250,0
Common Interval nm Changed: 2016-06-14 10:12:20, Old:     5,00, New:     1,00
Baseline Correction Changed: 2016-06-14 10:12:20, Old:0, New:1
Baseline file Changed: 2016-06-14 10:18:54, Old:, New:C:\Documents and Settings\Asia\Pulpit\NMilaniak2016\woda1cm.CSW
X Start nm Changed: 2016-06-14 10:23:40, Old:  800,0, New:  900,0
X Stop nm Changed: 2016-06-14 10:23:40, Old:  250,0, New:  190,0
X Stop nm Changed: 2016-06-14 10:23:46, Old:  190,0, New:  200,0
Baseline file Changed: 2016-06-14 10:24:15, Old:C:\Documents and Settings\Asia\Pulpit\NMilaniak2016\woda1cm.CSW, New:
Baseline file Changed: 2016-06-14 10:25:37, Old:, New:C:\Documents and Settings\Asia\Pulpit\NMilaniak2016\woda1cm.CSW
X Stop nm Changed: 2016-06-14 10:38:06, Old:  200,0, New:  230,0
End Method Modifications
<Current Wavelength> , 230,0

