2x roz 50mM NaOH;;
Wavelength (nm);Abs;
899,980957;0,003208168084;
899,0529175;0,003829553025;
897,9917603;0,003358793911;
897,0628662;0,003129106946;
896,0006714;0,003079283983;
894,9379883;0,003968821838;
894,0076294;0,004081873689;
892,9439087;0,003745809663;
892,0126953;0,003992673475;
890,947876;0,004196287598;
890,0157471;0,004049028736;
888,9499512;0,003488204442;
888,0169067;0,003950875252;
886,9500732;0,003763617249;
886,0161743;0,003671010258;
884,9483032;0,003781895386;
884,0134888;0,003069846658;
882,9445801;0,003498642473;
882,0088501;0,004210453946;
880,9389648;0,004147805739;
880,0023193;0,004534086678;
879,0653076;0,003841331229;
877,9938965;0,00402598409;
877,0560303;0,004403658211;
875,9835815;0,004180840682;
875,0447998;0,004299149849;
873,9713745;0,00500153983;
873,0316772;0,004412496928;
871,9572144;0,003461927874;
871,0166626;0,004191426095;
869,9412231;0,003650309052;
868,9997559;0,003689885139;
868,0579224;0,00312284939;
866,9810181;0,003604315454;
866,038269;0,004186851904;
864,9603271;0,003814876545;
864,0167236;0,003915820271;
862,9378052;0,004139364231;
861,9933472;0,003155493876;
861,0484009;0,003740953049;
859,9680176;0,003584609134;
859,0222778;0,003442619462;
857,940918;0,004294731654;
856,9942627;0,003643260803;
856,0472412;0,003315752605;
854,9644165;0,00284687872;
854,0164795;0,003127881559;
852,9326782;0,003627076745;
851,9838867;0,002687079133;
851,034729;0,003348437604;
849,9494629;0,004040589556;
848,9994507;0,00377056282;
848,0490112;0,003241653321;
846,9623413;0,003210775787;
846,0110474;0,003304093145;
845,0593262;0,002988256514;
843,9711914;0,002485421021;
843,0186768;0,003017319599;
842,0657349;0,00337496819;
840,9761353;0,003627781523;
840,0223389;0,003951711114;
838,9318237;0,003379481379;
837,9771729;0,002935035853;
837,0221558;0,003317839466;
836,0667114;0,003237897763;
834,9743042;0,003362185322;
834,0180054;0,003748629475;
833,0613403;0,003509393893;
831,9675293;0,003683802439;
831,0100098;0,003620707663;
830,052063;0,002785468474;
828,9568481;0,002973087132;
827,9981079;0,003614625661;
827,0390015;0,003007727442;
825,9423218;0,003340585623;
824,9823608;0,002723572077;
824,0219727;0,00274501089;
823,0612183;0,003470669268;
821,9627686;0,003563520266;
821,0011597;0,002898003906;
820,0391846;0,003818323603;
818,9393311;0,003974752035;
817,9765015;0,003197137266;
817,0133667;0,003413449507;
816,0497437;0,003061295953;
814,9480591;0,002919816179;
813,9836426;0,00388207403;
813,0188599;0,003484812099;
812,0537109;0,003174554789;
810,9501953;0,003511090064;
809,9841919;0,003048600629;
809,0178223;0,002994824899;
808,0510864;0,003150305012;
806,9457397;0,003236463526;
805,9782104;0,00355817005;
805,0102539;0,003525051754;
804,0418701;0,003714713501;
802,9347534;0,003346428974;
801,9656372;0,00326512591;
800,9960938;0,003590847133;
800,0261841;0,003964563832;
799,0559082;0,003478862578;
797,9465942;0,003396360669;
796,9754639;0,003344420344;
796,0040283;0,004219262861;
795,0321655;0,003295407398;
794,0599976;0,003521241713;
792,9484253;0,003812970361;
791,9754028;0,003362654941;
791,0020142;0,003148193005;
790,0282593;0,003204725683;
789,0540771;0,003658036003;
787,9403687;0,002900505671;
786,9653931;0,003507697722;
785,9901123;0,003262230894;
785,0144043;0,003449194599;
784,0383911;0,002622722881;
783,0619507;0,003475966165;
781,9456177;0,003111690516;
780,9683838;0,003263639286;
779,9907837;0,003822528291;
779,0128784;0,003184463829;
778,0345459;0,003243244253;
777,0558472;0,00279083522;
775,9368896;0,002823454794;
774,9574585;0,003360046074;
773,9776001;0,002918643411;
772,9974365;0,003285287181;
772,0168457;0,002956980141;
771,0358887;0,00330025889;
770,0546265;0,003498720704;
768,9326782;0,003321412951;
767,9506226;0,003035149537;
766,9682007;0,00356417289;
765,9854126;0,00321074971;
765,0022583;0,002695804927;
764,0187378;0,003380081384;
763,0348511;0,003649108112;
762,0505981;0,003645296907;
761,065979;0,002962948522;
759,9403076;0,003403143957;
758,9549561;0,003399909008;
757,9691772;0,003711658763;
756,9830933;0,003639736911;
755,9966431;0,00343990582;
755,0098877;0,003409431549;
754,0227051;0,003569366643;
753,0352173;0,002950881375;
752,0473633;0,003821927588;
751,059082;0,003378255293;
750,0705566;0,003359967843;
748,9403076;0,00347847119;
747,9509277;0,00369489775;
746,9612427;0,003237115452;
745,9712524;0,003255397547;
744,980835;0,00391380908;
743,9901123;0,003352611326;
742,9989624;0,003119460074;
742,0075684;0,003476879559;
741,0157471;0,003371733241;
740,0236206;0,003241444705;
739,0310669;0,003426573006;
738,038269;0,00358259934;
737,0450439;0,003309961874;
736,0515137;0,003254876006;
735,0576172;0,003395395586;
734,0633545;0,003418145701;
733,0687866;0,003270524787;
731,9317017;0,00324906013;
730,9364014;0,003336203285;
729,9406738;0,003311579116;
728,9447021;0,003176875645;
727,9483032;0,003128976561;
726,9515991;0,003715313971;
725,9545898;0,003594266251;
724,9572144;0,003337376984;
723,9594727;0,003390751546;
722,9613647;0,003672028426;
721,9629517;0,003364428878;
720,9642334;0,003201544285;
719,9650879;0,003445802722;
718,9656982;0,00343048689;
717,9658813;0,003424433758;
716,9657593;0,003558143973;
715,965332;0,003438079497;
714,9645386;0,003553289687;
713,9634399;0,003546556225;
712,9619751;0,003558926983;
711,960144;0,003517118283;
710,9580078;0,003194112098;
709,9555054;0,003319195705;
708,9526978;0,003361141775;
707,949585;0,003588002175;
706,946106;0,003663048148;
705,9422607;0,003606012091;
704,9381714;0,003790460294;
703,9336548;0,003443167312;
702,928833;0,003446324496;
702,0673218;0,003845144296;
701,0618896;0,003625510493;
700,0561523;0,003663726849;
699,0500488;0,003702155547;
698,0436401;0,003496502759;
697,0368652;0,003757350612;
696,0297852;0,003219746752;
695,0223999;0,003924022429;
694,0146484;0,0039125029;
693,0065918;0,003740874818;
691,99823;0,003964825068;
690,989502;0,003821196267;
689,9804688;0,003933321219;
688,9710693;0,003671715269;
687,9613647;0,004121436737;
686,951355;0,004180396441;
685,94104;0,003687979421;
684,9303589;0,003866063664;
684,0638428;0,003699492663;
683,0525513;0,003599147312;
682,0409546;0,003679364221;
681,0290527;0,003930657171;
680,0168457;0,003959939815;
679,0042725;0,003890667111;
677,991394;0,004050753079;
676,9782104;0,003108796431;
675,9647217;0,004146289546;
674,9508667;0,003652214538;
673,9367065;0,003613007255;
673,0671997;0,003829866415;
672,0524292;0,003498277161;
671,0373535;0,003568714252;
670,0219727;0,003660985967;
669,0062866;0,003391456092;
667,9902954;0,003797275946;
666,973999;0,003804013133;
665,9573364;0,003473382909;
664,9403687;0,00352288573;
664,0684814;0,00371956965;
663,0509033;0,003865802661;
662,0330811;0,003722310998;
661,0148926;0,00352366874;
659,99646;0,003693748964;
658,9776611;0,003611363005;
657,9585571;0,003685238305;
656,9391479;0,004005448893;
656,0651245;0,004247310571;
655,045166;0,004362814128;
654,0248413;0,004049263895;
653,0042725;0,00371351256;
651,9833374;0,00420679478;
650,9620972;0,004070977215;
649,9406128;0,003902760334;
649,0647583;0,004237168003;
648,0426636;0,004146786407;
647,0202637;0,003940295894;
645,9975586;0,00400547497;
644,9745483;0,00399348326;
643,9512329;0,003938885406;
642,9276123;0,004240801558;
642,0499878;0,004261243623;
641,0258179;0,004119215533;
640,0013428;0,004354081117;
638,9765625;0,003923630342;
637,9514771;0,004469979089;
637,0725708;0,004390321672;
636,046936;0,004261164926;
635,0209961;0,004165394232;
633,9946899;0,004174306523;
632,9682007;0,004204651341;
631,9413452;0,004104973283;
631,0609131;0,004161421675;
630,0335083;0,004357166123;
629,0058594;0,003979428206;
627,9778442;0,004065908026;
626,9495239;0,004305241629;
626,0679321;0,004433861934;
625,0390625;0,004274785053;
624,0099487;0,004404285457;
622,9805298;0,004607386421;
621,9508057;0,004387837835;
621,0679321;0,004368514288;
620,0376587;0,004640325904;
619,0071411;0,004374763463;
617,9762573;0,004475784954;
616,9451294;0,004174071364;
616,0610352;0,004583867267;
615,0293579;0,004770092666;
613,9973755;0,004516038112;
612,9650879;0,004710006062;
611,9325562;0,004641241394;
611,0473022;0,004750281107;
610,0141602;0,004780037794;
608,980835;0,005111534148;
607,9471436;0,005072352011;
607,0609131;0,004947128706;
606,0267334;0,004344354384;
604,9922485;0,004926994909;
603,9574585;0,005022541154;
603,0702515;0,005169658922;
602,0349731;0,005154334474;
600,9993896;0,00540912943;
599,963501;0,005324740428;
598,9273682;0,005018639378;
598,0390015;0,005112345796;
597,0023193;0,005681960844;
595,9653931;0,0054242271;
594,9281616;0,005254777614;
594,0388184;0,005683088209;
593,0010986;0,005589625798;
591,9630127;0,005641835276;
591,0730591;0,005734732375;
590,0344849;0,005689645186;
588,9956665;0,00563181797;
587,956543;0,005601399112;
587,0656738;0,005494819954;
586,026001;0,005746903364;
584,986145;0,005614431575;
583,9459229;0,005812143907;
583,0541382;0,005961104296;
582,0134277;0,006203874014;
580,9724731;0,006048846059;
579,9312134;0,006186911371;
579,0385132;0,006135633681;
577,9967651;0,006275224034;
576,9547119;0,006221808959;
576,0613403;0,006228478625;
575,0187988;0,006535381544;
573,9760132;0,006566969212;
572,9329224;0,006348214112;
572,0386353;0,006792224012;
570,9950562;0,006810998544;
569,9512329;0,006742557511;
569,0562744;0,007091342472;
568,0119629;0,00682296278;
566,9673462;0,006916375831;
566,0717163;0,007214079611;
565,0266113;0,007364600897;
563,9812622;0,007348356303;
562,9356079;0,007240821142;
562,0391235;0,007339273579;
560,992981;0,007492761593;
559,9465942;0,007678394206;
559,0494385;0,007558818441;
558,0025635;0,007713016123;
556,9553833;0,00787607301;
556,0576172;0,007953181863;
555,0100098;0,008034814149;
553,9620972;0,00798392389;
553,0636597;0,008236665279;
552,0152588;0,008385219611;
550,9666138;0,008382685483;
550,0675659;0,00828352198;
549,0184326;0,00845257286;
547,9690552;0,008531210013;
547,0693359;0,008870523423;
546,0194702;0,008951403201;
544,9693604;0,008917554282;
544,0690308;0,008840722963;
543,0184326;0,009128751233;
541,9675903;0,00902479142;
541,0666504;0,009720047936;
540,0152588;0,009952586144;
538,9636841;0,009855736978;
538,0621338;0,009776092134;
537,0100708;0,00973177515;
535,9577026;0,01022362243;
535,055542;0,01003978681;
534,0027466;0,009940720163;
532,949707;0,01074386109;
532,046875;0,01072600391;
530,9934082;0,01063991245;
529,9396362;0,01048570592;
529,0361938;0,01070063934;
527,9819946;0,01148190442;
526,9274902;0,01140945405;
526,0234985;0,01153684687;
524,9685669;0,01183161791;
524,0641479;0,01187606994;
523,008728;0,01201437786;
521,953064;0,01214703266;
521,0480347;0,01205813047;
519,9919434;0,01223605964;
518,9356079;0,01257969346;
518,0299683;0,01306146756;
516,9731445;0,01321112085;
516,0671387;0,01322750561;
515,0098877;0,0134722637;
513,9523926;0,0136018116;
513,0457764;0,0136813866;
511,987854;0,01393452659;
510,929657;0,01419340353;
510,0224609;0,01446300559;
508,9638062;0,01469386742;
508,0562134;0,01497787423;
506,9971313;0,01521257591;
505,9378052;0,01536997128;
505,0296326;0,01550875232;
503,9698792;0,01590691507;
503,0613098;0,01621474326;
502,0011292;0,0164345745;
500,9406738;0,01657036133;
500,0315247;0,01683043875;
498,9706421;0,01726736128;
498,0611267;0,01741472632;
496,9998169;0,01774169318;
495,9382629;0,01836209558;
495,0281982;0,01838653535;
493,9661865;0,01876412705;
493,0557251;0,01868342608;
491,9933167;0,01941027492;
490,9306641;0,02015550435;
490,0196533;0,02013690397;
488,956543;0,02022378705;
488,045166;0,02068200335;
486,9816589;0,02162235975;
486,0698853;0,02172227576;
485,0059509;0,02170706354;
483,9417725;0,02277625911;
483,0294495;0,02353212982;
481,9648743;0,02375597134;
481,0521851;0,0241198726;
479,9871826;0,02433175221;
479,0741272;0,02482781745;
478,0086975;0,02541270666;
476,9430542;0,02580423281;
476,0294495;0,02623128146;
474,9633789;0,02654613368;
474,049408;0,02707187273;
472,9829102;0,02777350135;
472,0686035;0,02833999135;
471,001709;0,02879280411;
469,9345703;0,02938358672;
469,0197144;0,02981453203;
467,952179;0,03048586845;
467,0369568;0,0310255494;
465,9690247;0,03178514913;
465,0534668;0,03217126057;
463,9851074;0,03303980455;
463,0691833;0,03340326995;
462,0004272;0,03417538851;
460,931427;0,03471922874;
460,0149841;0,0353439413;
458,9456177;0,03624272346;
458,0288086;0,03680017591;
456,9590454;0,03740844876;
456,0419006;0,0382101126;
454,9717102;0,03899173811;
454,0542297;0,03951026127;
452,9836426;0,04050682113;
452,0658264;0,04155888036;
450,9948425;0,04238314927;
449,923645;0,04299909994;
449,0053101;0,04367989674;
447,9337158;0,04457204789;
447,0150452;0,0457520932;
445,9430847;0,04671184346;
445,0240784;0,04762741178;
443,9516907;0,04832919315;
443,0323486;0,04933490977;
441,9595947;0,05051382631;
441,039917;0,05162600428;
439,9667664;0,0528020747;
439,0467529;0,05382076278;
437,9732056;0,05509844422;
437,052887;0,05622297153;
435,9789734;0,0574856177;
435,0582886;0,05866600946;
433,9840088;0,06005832553;
433,0630188;0,0612677969;
431,9883423;0,06264023483;
431,0670166;0,06405989081;
429,9919434;0,06556457281;
429,0703125;0,06716618687;
427,994873;0,06887214631;
427,0729065;0,07016364485;
425,9971008;0,07197920233;
425,0748291;0,07357374579;
423,9986267;0,07562009245;
423,0760498;0,07737116516;
421,9994812;0,07928033173;
421,0765686;0,08109535277;
419,9996338;0,0833234936;
419,076416;0,08530395478;
417,999115;0,08800097555;
417,0755615;0,08978741616;
415,9979248;0,09207841009;
415,0740356;0,0945244506;
413,9960327;0,09743607044;
413,0718384;0,09999532253;
411,9934692;0,1027263999;
411,0689697;0,1049851626;
409,9902344;0,1080182344;
409,0654602;0,1111209393;
407,9863281;0,1145344377;
407,0612488;0,1172181666;
405,981781;0,1202979311;
405,056366;0,1234714463;
403,9765625;0,127470538;
403,0508423;0,1313117296;
401,9706726;0,135189563;
401,0446777;0,1382024288;
399,9641418;0,1419845968;
399,0378418;0,1458383054;
397,9569702;0,150686115;
397,0303345;0,1548630297;
395,9491272;0,1584458351;
395,0222168;0,161566034;
393,9406433;0,1669628024;
393,0134277;0,1714906245;
391,9315186;0,1762417406;
391,0040283;0,1798207015;
390,0763855;0,1837074608;
388,993988;0,1896031648;
388,06604;0,194255501;
386,9833069;0,1996004879;
386,0550842;0,2038534135;
384,9719849;0,209009245;
384,043457;0,2140452713;
382,9600525;0,2202946544;
382,03125;0,2253340334;
380,9474792;0,2314350605;
380,0184021;0,2354509085;
378,9342957;0,2427955121;
378,0049133;0,2494736165;
377,0754089;0,2547573447;
375,9908447;0,2613925338;
375,0610352;0,2664697766;
373,9761353;0,2740463316;
373,0460815;0,2818618417;
371,9608154;0,2891054153;
371,0304871;0,2960731685;
369,9449158;0,3034115136;
369,0142822;0,3099472225;
367,9284058;0,3188998699;
366,9974976;0,3266838491;
366,0664673;0,3341056406;
364,9801025;0,3424019814;
364,0487976;0,350043118;
362,9621277;0,360111028;
362,0305481;0,3687963486;
360,9435425;0,3786283731;
360,0117188;0,3870826364;
358,924408;0,3981275558;
357,9922791;0,4073267877;
357,0600281;0,4173917174;
355,9722595;0,4295023978;
355,0397644;0,4382338822;
353,9516602;0,4498699307;
353,0188904;0,4612582326;
351,9305115;0,4738526344;
350,997467;0,4860675931;
350,0643005;0,4972815812;
348,9754639;0,5119705796;
348,0420227;0,5240946412;
346,9528809;0,5408505201;
346,0191956;0,5536289811;
344,9297485;0,5701186657;
343,9957886;0,5807555318;
343,0617371;0,5954396129;
341,9718323;0,6131538153;
341,0375061;0,6270261407;
339,9473267;0,6446855664;
339,0127258;0,657656014;
337,9222412;0,6732416749;
336,9874268;0,6905439496;
336,0524597;0,7049662471;
334,9615479;0,7248401642;
334,0263367;0,7370896935;
332,9351196;0,7539669275;
331,9996643;0,7722504735;
331,0641174;0,7875058055;
329,9724731;0,8074669242;
329,0366516;0,8223128319;
327,9447021;0,8409013152;
327,008667;0,8567876816;
326,0724792;0,8739486933;
324,9801331;0,8934969306;
324,0437012;0,9060593247;
322,9510803;0,9265246391;
322,0144043;0,9434631467;
321,0776367;0,9604296684;
319,9845886;0,9835668206;
319,0475769;0,9996554852;
317,9542542;1,021007895;
317,0169983;1,041692376;
315,9234009;1,062402129;
314,9859009;1,082935333;
314,0482788;1,10067749;
312,9542847;1,125794291;
312,016449;1,148169994;
310,9221497;1,171946764;
309,9841003;1,196256876;
309,0458984;1,218586326;
307,9512329;1,244368196;
307,0128174;1,272951126;
306,0743103;1,297442794;
304,9792175;1,32819128;
304,0404663;1,350116253;
302,9451294;1,385079026;
302,0061646;1,415772796;
301,0670776;1,443536758;
299,9713745;1,477886081;
299,0320435;1,502690554;
297,9360657;1,534608126;
296,996521;1,566243887;
296,0569153;1,597842216;
294,9605408;1,631546021;
294,0206909;1,658430815;
292,9240417;1,696245313;
291,9839783;1,729115248;
291,0437927;1,755068779;
289,9468079;1,793124557;
289,0064087;1,81763351;
288,065918;1,847595215;
286,9685364;1,881035805;
286,027832;1,906897902;
284,9302063;1,940594077;
283,9892578;1,963452935;
283,0482483;1,992582321;
281,9502563;2,023623228;
281,0090332;2,052618504;
280,067688;2,081547737;
278,9693298;2,118407726;
278,0278015;2,142746449;
276,9291992;2,178818464;
275,9874573;2,204129219;
275,0455933;2,207474947;
273,9466553;2,253502131;
273,0046082;2,27308917;
272,0624695;2,292151213;
270,9631653;2,305856705;
270,020813;2,311603785;
269,0783691;2,31543231;
267,9787292;2,347015142;
267,0360718;2,354762077;
265,9361877;2,350049973;
264,9933472;2,36436367;
264,050415;2,362667084;
262,9501953;2,346385479;
262,0070496;2,367104292;
261,0638428;2,360889435;
259,9632874;2,373729944;
259,0198669;2,404345989;
258,076355;2,448964119;
256,9754639;2,453543425;
256,0317383;2,487741709;
254,9306488;2,5279634;
253,9867401;2,616440296;
253,0427551;2,653959036;
251,94133;2,735131741;
250,9971466;2,768218994;
250,052887;2,878094196;
248,9573822;2,949069738;
248,0185699;3,12176156;
246,923172;3,312992811;
245,9841614;3,363904953;
245,0450745;3,60518837;
243,9493561;3,808113813;
243,0100861;3,864307404;
242,0707245;10;
240,9747162;4,877794266;
240,0351715;4,917877197;
238,9389496;4,423427582;
237,9992218;4,351039886;
237,059433;10;
235,9629059;10;
235,0229187;10;
233,9261932;10;
232,9860382;10;
232,0458069;10;
230,9487762;10;
230,0083771;10;

2x roz 50mM NaOH;
2x roz 50mM NaOH
Collection Time: 2016-06-14 10:40:50
Operator Name  :
Scan Software Version: 3.00(339)
Parameter List :
Instrument                        Cary 50
Instrument Version                3,00
Start (nm)                        900,0
Stop (nm)                         230,0
X Mode                            Nanometers
Y Mode                            Abs
UV-Vis Scan Rate (nm/min)         600,00
UV-Vis Data Interval (nm)         1,00
UV-Vis Ave. Time (sec)            0,1000
Beam Mode                         Dual Beam
Baseline Correction               On
Baseline Type                     Baseline correction
Baseline File Name                C:\Documents and Settings\Asia\Pulpit\NMilaniak2016\woda1cm.CSW
Baseline Std Ref File Name
Cycle Mode                        Off
Comments
Method Log     :
Method Name    :
Date/Time stamp: 2016-06-14 10:07:39
Method Modifications:
UVVIS SAT Changed: 2016-06-14 10:12:04, Old:0,0125, New:0,1000
Common SAT Changed: 2016-06-14 10:12:04, Old:0,0125, New:0,1000
X Stop nm Changed: 2016-06-14 10:12:20, Old:  200,0, New:  250,0
Common Interval nm Changed: 2016-06-14 10:12:20, Old:     5,00, New:     1,00
Baseline Correction Changed: 2016-06-14 10:12:20, Old:0, New:1
Baseline file Changed: 2016-06-14 10:18:54, Old:, New:C:\Documents and Settings\Asia\Pulpit\NMilaniak2016\woda1cm.CSW
X Start nm Changed: 2016-06-14 10:23:40, Old:  800,0, New:  900,0
X Stop nm Changed: 2016-06-14 10:23:40, Old:  250,0, New:  190,0
X Stop nm Changed: 2016-06-14 10:23:46, Old:  190,0, New:  200,0
Baseline file Changed: 2016-06-14 10:24:15, Old:C:\Documents and Settings\Asia\Pulpit\NMilaniak2016\woda1cm.CSW, New:
Baseline file Changed: 2016-06-14 10:25:37, Old:, New:C:\Documents and Settings\Asia\Pulpit\NMilaniak2016\woda1cm.CSW
X Stop nm Changed: 2016-06-14 10:38:06, Old:  200,0, New:  230,0
End Method Modifications
<Current Wavelength> , 230,0

